Wavelength (nm),Absorbance,Title,Time
190,0.029,4L_05nov2015,11/19/2015 11:25:46 AM
191,-0.041,,
192,-0.199,,
193,-0.277,,
194,-0.062,,
195,0.244,,
196,0.453,,
197,0.439,,
198,0.195,,
199,0.317,,
200,0.054,,
201,-0.347,,
202,-0.418,,
203,-0.259,,
204,0.018,,
205,-0.095,,
206,0.053,,
207,0.218,,
208,0.269,,
209,0.267,,
210,0.006,,
211,0.063,,
212,0.169,,
213,0.207,,
214,0.212,,
215,-0.008,,
216,-0.019,,
217,0.102,,
218,0.246,,
219,0.282,,
220,0.243,,
221,0.261,,
222,0.279,,
223,0.31,,
224,0.308,,
225,0.303,,
226,0.305,,
227,0.308,,
228,0.305,,
229,0.304,,
230,0.3,,
231,0.295,,
232,0.288,,
233,0.282,,
234,0.277,,
235,0.272,,
236,0.267,,
237,0.263,,
238,0.26,,
239,0.255,,
240,0.251,,
241,0.251,,
242,0.251,,
243,0.25,,
244,0.245,,
245,0.242,,
246,0.241,,
247,0.24,,
248,0.238,,
249,0.235,,
250,0.231,,
251,0.229,,
252,0.228,,
253,0.226,,
254,0.225,,
255,0.222,,
256,0.22,,
257,0.218,,
258,0.216,,
259,0.215,,
260,0.214,,
261,0.212,,
262,0.21,,
263,0.207,,
264,0.205,,
265,0.204,,
266,0.204,,
267,0.203,,
268,0.199,,
269,0.196,,
270,0.194,,
271,0.192,,
272,0.191,,
273,0.188,,
274,0.186,,
275,0.184,,
276,0.182,,
277,0.18,,
278,0.177,,
279,0.175,,
280,0.173,,
281,0.171,,
282,0.169,,
283,0.167,,
284,0.165,,
285,0.162,,
286,0.159,,
287,0.157,,
288,0.154,,
289,0.152,,
290,0.15,,
291,0.148,,
292,0.147,,
293,0.145,,
294,0.143,,
295,0.141,,
296,0.14,,
297,0.138,,
298,0.135,,
299,0.132,,
300,0.129,,
301,0.128,,
302,0.127,,
303,0.126,,
304,0.124,,
305,0.123,,
306,0.122,,
307,0.12,,
308,0.117,,
309,0.116,,
310,0.115,,
311,0.114,,
312,0.112,,
313,0.109,,
314,0.108,,
315,0.108,,
316,0.106,,
317,0.105,,
318,0.104,,
319,0.101,,
320,0.1,,
321,0.099,,
322,0.098,,
323,0.098,,
324,0.096,,
325,0.095,,
326,0.093,,
327,0.09,,
328,0.089,,
329,0.087,,
330,0.087,,
331,0.087,,
332,0.086,,
333,0.085,,
334,0.083,,
335,0.081,,
336,0.079,,
337,0.079,,
338,0.078,,
339,0.076,,
340,0.075,,
341,0.074,,
342,0.074,,
343,0.073,,
344,0.072,,
345,0.071,,
346,0.07,,
347,0.068,,
348,0.068,,
349,0.066,,
350,0.065,,
351,0.065,,
352,0.065,,
353,0.065,,
354,0.064,,
355,0.062,,
356,0.06,,
357,0.061,,
358,0.06,,
359,0.06,,
360,0.059,,
361,0.058,,
362,0.057,,
363,0.056,,
364,0.054,,
365,0.053,,
366,0.053,,
367,0.054,,
368,0.054,,
369,0.053,,
370,0.052,,
371,0.052,,
372,0.05,,
373,0.049,,
374,0.048,,
375,0.048,,
376,0.049,,
377,0.048,,
378,0.046,,
379,0.045,,
380,0.044,,
381,0.044,,
382,0.044,,
383,0.043,,
384,0.042,,
385,0.042,,
386,0.042,,
387,0.042,,
388,0.04,,
389,0.039,,
390,0.039,,
391,0.04,,
392,0.041,,
393,0.04,,
394,0.04,,
395,0.038,,
396,0.037,,
397,0.036,,
398,0.035,,
399,0.035,,
400,0.035,,
401,0.035,,
402,0.035,,
403,0.036,,
404,0.036,,
405,0.036,,
406,0.034,,
407,0.034,,
408,0.033,,
409,0.034,,
410,0.033,,
411,0.033,,
412,0.033,,
413,0.032,,
414,0.032,,
415,0.031,,
416,0.031,,
417,0.03,,
418,0.029,,
419,0.028,,
420,0.028,,
421,0.028,,
422,0.027,,
423,0.026,,
424,0.025,,
425,0.026,,
426,0.025,,
427,0.025,,
428,0.025,,
429,0.025,,
430,0.025,,
431,0.024,,
432,0.024,,
433,0.024,,
434,0.024,,
435,0.024,,
436,0.023,,
437,0.023,,
438,0.022,,
439,0.021,,
440,0.022,,
441,0.021,,
442,0.021,,
443,0.021,,
444,0.021,,
445,0.021,,
446,0.02,,
447,0.02,,
448,0.019,,
449,0.019,,
450,0.018,,
451,0.018,,
452,0.018,,
453,0.018,,
454,0.018,,
455,0.018,,
456,0.019,,
457,0.018,,
458,0.017,,
459,0.017,,
460,0.017,,
461,0.018,,
462,0.018,,
463,0.018,,
464,0.017,,
465,0.017,,
466,0.016,,
467,0.015,,
468,0.015,,
469,0.015,,
470,0.015,,
471,0.015,,
472,0.015,,
473,0.015,,
474,0.014,,
475,0.013,,
476,0.014,,
477,0.015,,
478,0.015,,
479,0.014,,
480,0.014,,
481,0.014,,
482,0.013,,
483,0.013,,
484,0.013,,
485,0.014,,
486,0.013,,
487,0.012,,
488,0.012,,
489,0.012,,
490,0.012,,
491,0.011,,
492,0.011,,
493,0.011,,
494,0.011,,
495,0.011,,
496,0.011,,
497,0.012,,
498,0.011,,
499,0.012,,
500,0.011,,
501,0.012,,
502,0.011,,
503,0.011,,
504,0.011,,
505,0.011,,
506,0.012,,
507,0.011,,
508,0.011,,
509,0.011,,
510,0.01,,
511,0.01,,
512,0.01,,
513,0.01,,
514,0.011,,
515,0.01,,
516,0.009,,
517,0.009,,
518,0.009,,
519,0.009,,
520,0.01,,
521,0.01,,
522,0.01,,
523,0.009,,
524,0.009,,
525,0.008,,
526,0.008,,
527,0.008,,
528,0.009,,
529,0.008,,
530,0.008,,
531,0.008,,
532,0.008,,
533,0.008,,
534,0.009,,
535,0.008,,
536,0.007,,
537,0.007,,
538,0.008,,
539,0.008,,
540,0.007,,
541,0.007,,
542,0.007,,
543,0.007,,
544,0.008,,
545,0.008,,
546,0.007,,
547,0.007,,
548,0.007,,
549,0.007,,
550,0.006,,
551,0.006,,
552,0.006,,
553,0.006,,
554,0.007,,
555,0.007,,
556,0.006,,
557,0.006,,
558,0.005,,
559,0.006,,
560,0.006,,
561,0.005,,
562,0.004,,
563,0.005,,
564,0.007,,
565,0.008,,
566,0.006,,
567,0.006,,
568,0.005,,
569,0.007,,
570,0.006,,
571,0.005,,
572,0.004,,
573,0.005,,
574,0.006,,
575,0.005,,
576,0.005,,
577,0.005,,
578,0.006,,
579,0.006,,
580,0.005,,
581,0.005,,
582,0.006,,
583,0.006,,
584,0.004,,
585,0.004,,
586,0.005,,
587,0.007,,
588,0.006,,
589,0.004,,
590,0.003,,
591,0.003,,
592,0.005,,
593,0.004,,
594,0.004,,
595,0.004,,
596,0.003,,
597,0.004,,
598,0.003,,
599,0.002,,
600,0.001,,
601,0.003,,
602,0.005,,
603,0.004,,
604,0.002,,
605,0.002,,
606,0.003,,
607,0.003,,
608,0.003,,
609,0.003,,
610,0.003,,
611,0.003,,
612,0.003,,
613,0.003,,
614,0.001,,
615,0.001,,
616,0.003,,
617,0.004,,
618,0.004,,
619,0.003,,
620,0.004,,
621,0.003,,
622,0.002,,
623,0.002,,
624,0.003,,
625,0.004,,
626,0.003,,
627,0.002,,
628,0.002,,
629,0.003,,
630,0.004,,
631,0.004,,
632,0.004,,
633,0.003,,
634,0.003,,
635,0.003,,
636,0.003,,
637,0.003,,
638,0.002,,
639,0.001,,
640,0.001,,
641,0.001,,
642,0.002,,
643,0.002,,
644,0.002,,
645,0.002,,
646,0.002,,
647,0.002,,
648,0.002,,
649,0.002,,
650,0.002,,
651,0.002,,
652,0.002,,
653,0.003,,
654,0.004,,
655,0.004,,
656,0.003,,
657,0.003,,
658,0.003,,
659,0.003,,
660,0.003,,
661,0.002,,
662,0.002,,
663,0.001,,
664,0.002,,
665,0.001,,
666,0.001,,
667,0,,
668,0,,
669,0.001,,
670,0.001,,
671,0.002,,
672,0.001,,
673,0,,
674,0,,
675,0.001,,
676,0.001,,
677,0,,
678,0.001,,
679,0.001,,
680,0,,
681,0,,
682,0,,
683,0.002,,
684,0.002,,
685,0.002,,
686,0,,
687,0.001,,
688,0.001,,
689,0.002,,
690,0.001,,
691,0.001,,
692,0.002,,
693,0.002,,
694,0.002,,
695,0.001,,
696,0.002,,
697,0.003,,
698,0.002,,
699,0,,
700,-0.001,,
701,0,,
702,0.001,,
703,0,,
704,-0.002,,
705,-0.002,,
706,0.001,,
707,0.002,,
708,0.002,,
709,0.001,,
710,0.001,,
711,0.001,,
712,0.001,,
713,0.001,,
714,0,,
715,0,,
716,0.001,,
717,0.003,,
718,0.002,,
719,0.001,,
720,0,,
721,0.002,,
722,0.003,,
723,0.002,,
724,0.001,,
725,0.001,,
726,0.001,,
727,0.001,,
728,0.001,,
729,0.001,,
730,0,,
731,0,,
732,0,,
733,0.001,,
734,0.001,,
735,-0.001,,
736,-0.002,,
737,-0.001,,
738,-0.002,,
739,0,,
740,-0.001,,
741,-0.001,,
742,-0.002,,
743,-0.001,,
744,0,,
745,0,,
746,0,,
747,0.001,,
748,0.001,,
749,0,,
750,0,,
751,0.001,,
752,0.002,,
753,0.003,,
754,0.002,,
755,-0.001,,
756,0.001,,
757,0.003,,
758,0.002,,
759,-0.002,,
760,0,,
761,0,,
762,0.002,,
763,0.003,,
764,0.002,,
765,0,,
766,0.001,,
767,0.001,,
768,0.002,,
769,0.001,,
770,0,,
771,-0.001,,
772,0,,
773,-0.002,,
774,0.002,,
775,0.003,,
776,0.002,,
777,-0.001,,
778,-0.002,,
779,0,,
780,0.001,,
781,0.003,,
782,0.003,,
783,0.001,,
784,0.003,,
785,0.007,,
786,0.005,,
787,0,,
788,-0.002,,
789,-0.001,,
790,0,,
791,0.003,,
792,0.005,,
793,0.002,,
794,0.001,,
795,0.003,,
796,0.001,,
797,-0.006,,
798,-0.003,,
799,0.002,,
800,0.003,,
801,-0.003,,
802,-0.003,,
803,-0.004,,
804,0,,
805,0.001,,
806,0.003,,
807,0.002,,
808,0.002,,
809,-0.003,,
810,-0.003,,
811,0,,
812,-0.003,,
813,-0.001,,
814,0.004,,
815,0.008,,
816,0.004,,
817,0.003,,
818,0.001,,
819,0.002,,
820,0.003,,
821,0.005,,
822,0.003,,
823,-0.001,,
824,-0.002,,
825,0.001,,
826,0.001,,
827,0,,
828,0.001,,
829,0.003,,
830,0.001,,
831,-0.004,,
832,-0.005,,
833,-0.001,,
834,0.002,,
835,0.002,,
836,0,,
837,-0.003,,
838,-0.003,,
839,0.001,,
840,0.001,,