Wavelength (nm),Absorbance,Title,Time
190,-0.074,5LS_05nov2015,11/19/2015 11:26:13 AM
191,0.174,,
192,0.283,,
193,0.162,,
194,0.002,,
195,-0.077,,
196,0.127,,
197,0.301,,
198,0.241,,
199,0.508,,
200,0.27,,
201,0.259,,
202,0.235,,
203,0.168,,
204,0.265,,
205,0.215,,
206,0.396,,
207,0.326,,
208,0.156,,
209,0.149,,
210,0.148,,
211,0.321,,
212,0.408,,
213,0.289,,
214,0.068,,
215,0.013,,
216,0.083,,
217,0.126,,
218,0.172,,
219,0.191,,
220,0.178,,
221,0.193,,
222,0.18,,
223,0.203,,
224,0.196,,
225,0.192,,
226,0.192,,
227,0.197,,
228,0.197,,
229,0.195,,
230,0.192,,
231,0.189,,
232,0.185,,
233,0.181,,
234,0.181,,
235,0.176,,
236,0.175,,
237,0.173,,
238,0.172,,
239,0.17,,
240,0.167,,
241,0.167,,
242,0.166,,
243,0.166,,
244,0.163,,
245,0.162,,
246,0.162,,
247,0.161,,
248,0.16,,
249,0.158,,
250,0.156,,
251,0.156,,
252,0.156,,
253,0.156,,
254,0.156,,
255,0.155,,
256,0.151,,
257,0.15,,
258,0.149,,
259,0.149,,
260,0.149,,
261,0.148,,
262,0.145,,
263,0.143,,
264,0.142,,
265,0.142,,
266,0.142,,
267,0.14,,
268,0.137,,
269,0.135,,
270,0.133,,
271,0.133,,
272,0.131,,
273,0.13,,
274,0.129,,
275,0.127,,
276,0.125,,
277,0.123,,
278,0.122,,
279,0.12,,
280,0.119,,
281,0.116,,
282,0.115,,
283,0.113,,
284,0.111,,
285,0.109,,
286,0.107,,
287,0.107,,
288,0.105,,
289,0.103,,
290,0.102,,
291,0.101,,
292,0.1,,
293,0.098,,
294,0.097,,
295,0.097,,
296,0.097,,
297,0.096,,
298,0.094,,
299,0.091,,
300,0.089,,
301,0.088,,
302,0.088,,
303,0.087,,
304,0.086,,
305,0.086,,
306,0.086,,
307,0.084,,
308,0.082,,
309,0.08,,
310,0.08,,
311,0.08,,
312,0.078,,
313,0.077,,
314,0.076,,
315,0.076,,
316,0.076,,
317,0.076,,
318,0.074,,
319,0.072,,
320,0.071,,
321,0.07,,
322,0.069,,
323,0.07,,
324,0.068,,
325,0.068,,
326,0.066,,
327,0.064,,
328,0.063,,
329,0.063,,
330,0.064,,
331,0.064,,
332,0.062,,
333,0.061,,
334,0.06,,
335,0.059,,
336,0.059,,
337,0.059,,
338,0.058,,
339,0.056,,
340,0.056,,
341,0.056,,
342,0.057,,
343,0.056,,
344,0.055,,
345,0.054,,
346,0.054,,
347,0.053,,
348,0.052,,
349,0.051,,
350,0.05,,
351,0.05,,
352,0.051,,
353,0.051,,
354,0.05,,
355,0.048,,
356,0.047,,
357,0.048,,
358,0.048,,
359,0.048,,
360,0.047,,
361,0.047,,
362,0.046,,
363,0.044,,
364,0.042,,
365,0.042,,
366,0.043,,
367,0.044,,
368,0.044,,
369,0.044,,
370,0.043,,
371,0.042,,
372,0.041,,
373,0.04,,
374,0.039,,
375,0.039,,
376,0.04,,
377,0.039,,
378,0.038,,
379,0.037,,
380,0.036,,
381,0.036,,
382,0.035,,
383,0.035,,
384,0.034,,
385,0.034,,
386,0.035,,
387,0.036,,
388,0.034,,
389,0.033,,
390,0.033,,
391,0.033,,
392,0.034,,
393,0.033,,
394,0.033,,
395,0.033,,
396,0.032,,
397,0.03,,
398,0.029,,
399,0.029,,
400,0.029,,
401,0.03,,
402,0.03,,
403,0.03,,
404,0.03,,
405,0.029,,
406,0.029,,
407,0.028,,
408,0.027,,
409,0.028,,
410,0.028,,
411,0.028,,
412,0.029,,
413,0.028,,
414,0.028,,
415,0.027,,
416,0.027,,
417,0.026,,
418,0.025,,
419,0.025,,
420,0.024,,
421,0.024,,
422,0.023,,
423,0.023,,
424,0.023,,
425,0.023,,
426,0.023,,
427,0.022,,
428,0.023,,
429,0.022,,
430,0.022,,
431,0.022,,
432,0.022,,
433,0.022,,
434,0.022,,
435,0.022,,
436,0.021,,
437,0.021,,
438,0.021,,
439,0.02,,
440,0.02,,
441,0.02,,
442,0.019,,
443,0.019,,
444,0.019,,
445,0.019,,
446,0.019,,
447,0.019,,
448,0.018,,
449,0.018,,
450,0.018,,
451,0.018,,
452,0.018,,
453,0.017,,
454,0.017,,
455,0.017,,
456,0.018,,
457,0.017,,
458,0.016,,
459,0.016,,
460,0.017,,
461,0.018,,
462,0.017,,
463,0.017,,
464,0.017,,
465,0.017,,
466,0.017,,
467,0.016,,
468,0.015,,
469,0.016,,
470,0.016,,
471,0.016,,
472,0.016,,
473,0.016,,
474,0.016,,
475,0.015,,
476,0.015,,
477,0.015,,
478,0.016,,
479,0.015,,
480,0.015,,
481,0.015,,
482,0.014,,
483,0.014,,
484,0.015,,
485,0.015,,
486,0.014,,
487,0.014,,
488,0.014,,
489,0.014,,
490,0.013,,
491,0.013,,
492,0.012,,
493,0.013,,
494,0.013,,
495,0.014,,
496,0.014,,
497,0.013,,
498,0.013,,
499,0.013,,
500,0.013,,
501,0.013,,
502,0.013,,
503,0.013,,
504,0.013,,
505,0.013,,
506,0.014,,
507,0.013,,
508,0.012,,
509,0.013,,
510,0.012,,
511,0.012,,
512,0.012,,
513,0.011,,
514,0.012,,
515,0.011,,
516,0.011,,
517,0.011,,
518,0.011,,
519,0.011,,
520,0.011,,
521,0.011,,
522,0.011,,
523,0.011,,
524,0.011,,
525,0.01,,
526,0.01,,
527,0.01,,
528,0.011,,
529,0.01,,
530,0.01,,
531,0.01,,
532,0.01,,
533,0.011,,
534,0.011,,
535,0.01,,
536,0.01,,
537,0.01,,
538,0.01,,
539,0.01,,
540,0.01,,
541,0.009,,
542,0.009,,
543,0.01,,
544,0.011,,
545,0.01,,
546,0.01,,
547,0.009,,
548,0.009,,
549,0.008,,
550,0.009,,
551,0.009,,
552,0.008,,
553,0.008,,
554,0.009,,
555,0.009,,
556,0.009,,
557,0.009,,
558,0.009,,
559,0.01,,
560,0.009,,
561,0.008,,
562,0.007,,
563,0.008,,
564,0.01,,
565,0.01,,
566,0.009,,
567,0.007,,
568,0.008,,
569,0.01,,
570,0.009,,
571,0.007,,
572,0.007,,
573,0.008,,
574,0.009,,
575,0.009,,
576,0.008,,
577,0.008,,
578,0.008,,
579,0.008,,
580,0.008,,
581,0.008,,
582,0.008,,
583,0.008,,
584,0.006,,
585,0.006,,
586,0.008,,
587,0.009,,
588,0.009,,
589,0.007,,
590,0.007,,
591,0.007,,
592,0.008,,
593,0.007,,
594,0.006,,
595,0.007,,
596,0.007,,
597,0.006,,
598,0.007,,
599,0.007,,
600,0.007,,
601,0.005,,
602,0.006,,
603,0.006,,
604,0.006,,
605,0.006,,
606,0.007,,
607,0.007,,
608,0.006,,
609,0.006,,
610,0.006,,
611,0.007,,
612,0.006,,
613,0.006,,
614,0.004,,
615,0.004,,
616,0.005,,
617,0.006,,
618,0.006,,
619,0.005,,
620,0.006,,
621,0.007,,
622,0.007,,
623,0.005,,
624,0.007,,
625,0.008,,
626,0.007,,
627,0.006,,
628,0.007,,
629,0.007,,
630,0.008,,
631,0.007,,
632,0.007,,
633,0.006,,
634,0.006,,
635,0.006,,
636,0.006,,
637,0.006,,
638,0.005,,
639,0.004,,
640,0.004,,
641,0.004,,
642,0.005,,
643,0.006,,
644,0.006,,
645,0.005,,
646,0.005,,
647,0.005,,
648,0.006,,
649,0.006,,
650,0.006,,
651,0.006,,
652,0.006,,
653,0.006,,
654,0.006,,
655,0.007,,
656,0.006,,
657,0.006,,
658,0.007,,
659,0.007,,
660,0.007,,
661,0.006,,
662,0.006,,
663,0.005,,
664,0.006,,
665,0.006,,
666,0.006,,
667,0.005,,
668,0.005,,
669,0.005,,
670,0.006,,
671,0.005,,
672,0.004,,
673,0.004,,
674,0.005,,
675,0.005,,
676,0.005,,
677,0.004,,
678,0.004,,
679,0.004,,
680,0.004,,
681,0.005,,
682,0.004,,
683,0.006,,
684,0.006,,
685,0.006,,
686,0.004,,
687,0.005,,
688,0.005,,
689,0.006,,
690,0.005,,
691,0.005,,
692,0.005,,
693,0.006,,
694,0.006,,
695,0.005,,
696,0.005,,
697,0.006,,
698,0.006,,
699,0.004,,
700,0.003,,
701,0.003,,
702,0.003,,
703,0.003,,
704,0.002,,
705,0.003,,
706,0.006,,
707,0.007,,
708,0.005,,
709,0.004,,
710,0.005,,
711,0.005,,
712,0.004,,
713,0.004,,
714,0.002,,
715,0.003,,
716,0.005,,
717,0.006,,
718,0.005,,
719,0.004,,
720,0.002,,
721,0.003,,
722,0.005,,
723,0.006,,
724,0.005,,
725,0.004,,
726,0.004,,
727,0.005,,
728,0.004,,
729,0.004,,
730,0.004,,
731,0.005,,
732,0.004,,
733,0.005,,
734,0.004,,
735,0.002,,
736,0,,
737,0.003,,
738,0.002,,
739,0.004,,
740,0.003,,
741,0.004,,
742,0.002,,
743,0.003,,
744,0.004,,
745,0.003,,
746,0.003,,
747,0.006,,
748,0.003,,
749,0.001,,
750,0,,
751,0.005,,
752,0.005,,
753,0.006,,
754,0.005,,
755,0.004,,
756,0.006,,
757,0.007,,
758,0.006,,
759,0.002,,
760,0.005,,
761,0.005,,
762,0.005,,
763,0.004,,
764,0.006,,
765,0.004,,
766,0.004,,
767,0.005,,
768,0.005,,
769,0.004,,
770,0.004,,
771,0.003,,
772,0.002,,
773,0.002,,
774,0.006,,
775,0.007,,
776,0.006,,
777,0.003,,
778,0,,
779,0.004,,
780,0.006,,
781,0.009,,
782,0.006,,
783,0.002,,
784,0.003,,
785,0.008,,
786,0.007,,
787,0.003,,
788,0,,
789,0.001,,
790,0.003,,
791,0.006,,
792,0.006,,
793,0.005,,
794,0.007,,
795,0.009,,
796,0.004,,
797,0,,
798,0.002,,
799,0.005,,
800,0.007,,
801,0.004,,
802,0.006,,
803,0.004,,
804,0.003,,
805,-0.003,,
806,0,,
807,0.004,,
808,0.005,,
809,0.001,,
810,-0.001,,
811,0.003,,
812,0.003,,
813,0.006,,
814,0.007,,
815,0.009,,
816,0.005,,
817,0.004,,
818,0.003,,
819,0.003,,
820,0.005,,
821,0.007,,
822,0.006,,
823,0.002,,
824,0.002,,
825,0.004,,
826,0.005,,
827,0.004,,
828,0.005,,
829,0.005,,
830,0.004,,
831,0.002,,
832,0.002,,
833,0.004,,
834,0.004,,
835,0.002,,
836,0.003,,
837,0.005,,
838,0.005,,
839,0.006,,
840,0.008,,